TITLE;PNA_120919_ThermDenat
DATA TYPE;
ORIGIN;JASCO
OWNER;IREBS
DATE;12/09/20
TIME;02:23:18
SPECTROMETER/DATA SYSTEM;
LOCALE;1036
XUNITS;Temperature[C]
YUNITS;CD [mdeg]
Y2UNITS;HT [V]
Y3UNITS;ABSORBANCE
FIRSTX;   35,0100
LASTX;   95,0600
NPOINTS;     121
XYDATA
35,0100;0,89352;221,002;0,272395
35,5500;0,978511;221,613;0,280321
36,0400;0,978326;221,727;0,281797
36,5500;0,931203;221,73;0,281839
37,0400;0,942924;221,835;0,283197
37,5500;0,999281;221,666;0,281012
38,0500;0,917207;221,914;0,284225
38,5400;0,94631;221,785;0,282557
39,0500;1,00054;221,863;0,28356
39,5500;0,951425;221,929;0,28442
40,0400;0,973531;222,008;0,285449
40,5500;0,971223;221,851;0,283407
41,0600;1,04923;221,984;0,285136
41,5500;0,948907;221,899;0,284032
42,0600;1,02489;221,868;0,283628
42,5500;1,02431;221,888;0,283887
43,0500;1,01612;221,842;0,283297
43,5700;1,02503;221,717;0,28167
44,0500;1,03615;221,974;0,284998
44,5500;0,938763;222,073;0,286287
45,0400;1,00333;222,124;0,286952
45,5500;1,09233;221,988;0,285183
46,0400;1,05492;221,963;0,284861
46,5500;1,02039;222,064;0,286176
47,0400;0,991749;221,986;0,285154
47,5500;1,00214;222,1;0,28664
48,0500;1,04114;222,061;0,286136
48,5500;0,99343;222,202;0,287961
49,0400;1,04454;222,148;0,287264
49,5500;1,03649;222,142;0,287188
50,0400;0,964194;222,164;0,287463
50,5500;1,04454;222,078;0,28635
51,0600;0,959827;222,161;0,287434
51,5500;0,993895;222,272;0,288866
52,0500;1,06854;222,141;0,28717
52,5400;1,06862;222,26;0,288712
53,0500;1,02832;222,355;0,289941
53,5500;1,05846;222,312;0,289384
54,0600;1,0077;222,403;0,290571
54,5600;1,06021;222,449;0,291164
55,0500;1,04043;222,452;0,291203
55,5600;1,08723;222,311;0,289374
56,0500;1,05114;222,292;0,289132
56,5500;1,07865;222,35;0,289883
57,0600;1,09758;222,581;0,29287
57,5600;1,02991;222,506;0,291899
58,0500;1,10413;222,448;0,291152
58,5400;1,00175;222,446;0,291129
59,0500;1,01472;222,501;0,291835
59,5500;1,00896;222,508;0,291931
60,0500;1,04335;222,174;0,287592
60,5500;1,09306;222,446;0,291121
61,0600;0,997492;222,477;0,291532
61,5400;0,998071;222,571;0,292741
62,0600;1,05008;222,64;0,293643
62,5600;1,00241;222,536;0,292289
63,0500;1,05775;222,639;0,293626
63,5500;1,08239;222,601;0,293133
64,0500;1,02233;222,467;0,291403
64,5400;1,10337;222,728;0,294778
65,0500;1,04864;222,451;0,291189
65,5600;0,993123;222,528;0,292189
66,0500;1,07226;222,433;0,290952
66,5500;1,01367;222,456;0,291256
67,0500;1,0862;222,516;0,292027
67,5500;0,987881;222,484;0,291615
68,0500;1,05894;222,44;0,291052
68,5600;1,10819;222,493;0,291738
69,0600;1,01027;222,726;0,294757
69,5500;1,10617;222,335;0,289686
70,0500;1,09432;222,422;0,290818
70,5500;1,05957;222,716;0,294626
71,0500;1,04125;222,556;0,29255
71,5600;1,01371;222,582;0,292887
72,0500;0,97584;222,74;0,294938
72,5400;1,04002;222,65;0,293769
73,0600;1,01318;222,569;0,292714
73,5600;0,99828;222,485;0,291633
74,0500;1,07076;222,433;0,290953
74,5500;1,05684;222,394;0,290449
75,0500;1,05634;222,563;0,292647
75,5400;1,06684;222,492;0,291716
76,0500;1,05593;222,425;0,29085
76,5500;1,07802;222,353;0,289921
77,0500;1,07873;222,544;0,292391
77,5500;1,02894;222,54;0,292342
78,0600;1,01738;222,568;0,292704
78,5500;1,02282;222,56;0,292606
79,0600;1,0981;222,36;0,290006
79,5500;1,08806;222,407;0,290618
80,0400;1,01972;222,604;0,293168
80,5500;1,04258;222,634;0,29356
81,0600;1,00836;222,273;0,288881
81,5600;1,08548;222,558;0,292573
82,0500;1,05213;222,547;0,292433
82,5600;1,04413;222,376;0,290217
83,0500;0,992184;222,544;0,29239
83,5600;1,12771;222,635;0,293577
84,0500;1,05353;222,486;0,291642
84,5600;1,03056;222,259;0,288703
85,0600;1,1097;222,488;0,291669
85,5500;0,879815;222,698;0,294393
86,0500;1,0248;222,344;0,289802
86,5500;0,995619;222,599;0,29311
87,0600;1,05713;222,603;0,293163
87,5500;1,12529;222,307;0,289327
88,0600;0,959306;222,163;0,287451
88,5500;1,00877;222,746;0,295019
89,0600;1,09078;222,586;0,292934
89,5600;1,04719;222,806;0,295794
90,0500;1,02976;222,334;0,28967
90,5600;1,02609;222,694;0,294346
91,0600;1,01917;222,635;0,293582
91,5600;1,08278;222,446;0,291124
92,0500;1,13967;222,617;0,293342
92,5600;1,01292;222,494;0,291745
93,0500;1,16428;222,497;0,291792
93,5500;1,07915;222,6;0,293121
94,0600;1,06498;222,512;0,291975
94,5600;1,02184;222,716;0,294632
95,0600;1,0545;222,614;0,293303

##### Extended Information
[Comments]
Sample name;PNA_120919_ThermDenat
Comment;C1: buffer; C2: D2-T; C3: T; C4: D1; C5: D2; C6: tern
User;YN
Division;IREBS
Company;IREBS

[Detailed Information]
Creation date;20/09/2012 02:23

Data array type;Non-linear data array * 3
Horizontal axis;Temperature [C]
Vertical axis(1);CD [mdeg]
Vertical axis(2);HT [V]
Vertical axis(3);Abs
Start;35,01 C
End;95,06 C
Data points;121     

[Measurement Information]
Instrument Name;CD
Model Name;J-815
Serial No.;B039561168

Accessory;MPTC-490S/15
Accessory S/N;B002661326
  Cell;1
  Control Sonsor;Holder
  Monitor Sensor;Holder
  Start Mode;Keep target temperature +/-0.10 deg C while 5 seconds
  Cell Length;10 mm

Photometric Mode;CD, HT, Abs
Sensitivity;Standard
D.I.T.;4 sec
Bandwidth;2.00 nm
Monitor Wavelength;250 nm
Baseline Correction;None
Shutter Control;Auto
PMT Voltage;Auto
Solvent;P20/0/6.8
Concentration;2e-005 mol/L

