TITLE	PNA8xx_T35a_1mm_130627
DATA TYPE	
ORIGIN	JASCO
OWNER	IREBS
DATE	13/06/27
TIME	13:01:34
SPECTROMETER/DATA SYSTEM	
LOCALE	1036
RESOLUTION	
DELTAX	-1
XUNITS	NANOMETERS
YUNITS	CD [mdeg]
Y2UNITS	HT [V]
Y3UNITS	ABSORBANCE
FIRSTX	  400,0000
LASTX	  190,0000
NPOINTS	     211
FIRSTY	     1,78787
MAXY	     1,78787
MINY	    -3,35712
XYDATA
400,0000	1,78787	204,197	0,0544374
399,0000	1,75847	203,788	0,0491362
398,0000	1,71077	203,581	0,0464446
397,0000	1,69628	203,588	0,0465392
396,0000	1,72245	203,7	0,0479844
395,0000	1,72616	203,814	0,0494693
394,0000	1,69717	203,872	0,0502171
393,0000	1,64414	203,881	0,0503418
392,0000	1,61854	203,88	0,0503212
391,0000	1,62307	203,883	0,0503637
390,0000	1,60341	203,862	0,0500837
389,0000	1,59667	203,801	0,049302
388,0000	1,59128	203,681	0,0477379
387,0000	1,57848	203,495	0,045335
386,0000	1,57461	203,262	0,0423038
385,0000	1,57171	203,007	0,0390033
384,0000	1,57678	202,745	0,0356065
383,0000	1,56831	202,489	0,0322783
382,0000	1,55435	202,252	0,0292111
381,0000	1,54372	202,041	0,026472
380,0000	1,55816	201,864	0,0241701
379,0000	1,5529	201,696	0,0219944
378,0000	1,52968	201,528	0,0198137
377,0000	1,50745	201,357	0,017597
376,0000	1,52046	201,183	0,015349
375,0000	1,56277	200,998	0,0129468
374,0000	1,56901	200,792	0,0102739
373,0000	1,58144	200,594	0,00770212
372,0000	1,56654	200,406	0,00526392
371,0000	1,56121	200,231	0,00299182
370,0000	1,55505	200,073	0,000951732
369,0000	1,55595	199,932	-0,000882993
368,0000	1,53951	199,812	-0,00244296
367,0000	1,51145	199,698	-0,00392106
366,0000	1,48838	199,604	-0,00513468
365,0000	1,47413	199,503	-0,00644581
364,0000	1,48012	199,411	-0,00763378
363,0000	1,4851	199,314	-0,00889326
362,0000	1,49387	199,222	-0,0100849
361,0000	1,46075	199,116	-0,0114632
360,0000	1,4328	199,022	-0,0126851
359,0000	1,41372	198,918	-0,0140296
358,0000	1,39891	198,834	-0,0151287
357,0000	1,39115	198,752	-0,0161925
356,0000	1,40467	198,694	-0,016937
355,0000	1,40044	198,644	-0,0175849
354,0000	1,38707	198,593	-0,018253
353,0000	1,36415	198,531	-0,019048
352,0000	1,34161	198,466	-0,0198909
351,0000	1,35536	198,404	-0,0206957
350,0000	1,35889	198,333	-0,021624
349,0000	1,39481	198,264	-0,0225146
348,0000	1,36692	198,16	-0,0238626
347,0000	1,35909	198,043	-0,0253855
346,0000	1,35436	197,92	-0,0269786
345,0000	1,3315	197,789	-0,0286769
344,0000	1,34854	197,675	-0,0301553
343,0000	1,35104	197,55	-0,0317713
342,0000	1,36675	197,426	-0,0333815
341,0000	1,3738	197,301	-0,0350038
340,0000	1,3691	197,175	-0,0366454
339,0000	1,36013	197,061	-0,0381177
338,0000	1,36477	196,96	-0,0394353
337,0000	1,36201	196,867	-0,0406358
336,0000	1,35762	196,781	-0,0417498
335,0000	1,36822	196,711	-0,0426594
334,0000	1,38824	196,651	-0,0434407
333,0000	1,38929	196,595	-0,0441647
332,0000	1,39561	196,54	-0,0448745
331,0000	1,38507	196,479	-0,0456679
330,0000	1,40468	196,424	-0,0463808
329,0000	1,37911	196,361	-0,0472019
328,0000	1,37498	196,29	-0,0481224
327,0000	1,36256	196,193	-0,0493719
326,0000	1,39252	196,058	-0,0511214
325,0000	1,43347	195,9	-0,0531729
324,0000	1,44143	195,767	-0,0548997
323,0000	1,42237	195,7	-0,0557674
322,0000	1,42173	195,702	-0,0557492
321,0000	1,40884	195,699	-0,0557864
320,0000	1,42222	195,668	-0,0561908
319,0000	1,40902	195,601	-0,0570534
318,0000	1,39114	195,525	-0,0580425
317,0000	1,40226	195,427	-0,059318
316,0000	1,39908	195,307	-0,0608619
315,0000	1,40531	195,162	-0,0627451
314,0000	1,39788	195,052	-0,0641798
313,0000	1,40068	195,001	-0,064834
312,0000	1,43459	195,023	-0,0645577
311,0000	1,43337	195,072	-0,0639129
310,0000	1,40795	195,097	-0,0635963
309,0000	1,39882	195,11	-0,0634274
308,0000	1,39471	195,11	-0,0634209
307,0000	1,41831	195,122	-0,0632622
306,0000	1,42843	195,14	-0,0630293
305,0000	1,43214	195,176	-0,062564
304,0000	1,45002	195,235	-0,0618004
303,0000	1,44065	195,305	-0,0608922
302,0000	1,45904	195,398	-0,0596932
301,0000	1,48337	195,508	-0,0582641
300,0000	1,52984	195,647	-0,0564546
299,0000	1,55885	195,815	-0,0542796
298,0000	1,57987	196,016	-0,0516664
297,0000	1,55833	196,247	-0,0486766
296,0000	1,57038	196,515	-0,0452036
295,0000	1,56373	196,813	-0,0413365
294,0000	1,58825	197,125	-0,0372858
293,0000	1,59955	197,402	-0,0337023
292,0000	1,62974	197,715	-0,0296393
291,0000	1,6387	198,151	-0,0239766
290,0000	1,65809	198,724	-0,0165449
289,0000	1,65402	199,367	-0,00820507
288,0000	1,64871	199,982	-0,000229703
287,0000	1,63595	200,572	0,00741813
286,0000	1,63068	201,186	0,0153773
285,0000	1,59388	201,816	0,023549
284,0000	1,57665	202,469	0,0320275
283,0000	1,57055	203,141	0,0407442
282,0000	1,57361	203,829	0,0496672
281,0000	1,59054	204,549	0,0589969
280,0000	1,5734	205,297	0,0687007
279,0000	1,53787	206,089	0,0789719
278,0000	1,47653	206,908	0,089591
277,0000	1,42729	207,747	0,100472
276,0000	1,3714	208,576	0,111228
275,0000	1,32641	209,404	0,121969
274,0000	1,28297	210,237	0,132778
273,0000	1,22495	211,07	0,143579
272,0000	1,16154	211,916	0,154555
271,0000	1,10034	212,773	0,165668
270,0000	1,01036	213,63	0,176782
269,0000	0,927342	214,505	0,188129
268,0000	0,855137	215,387	0,199564
267,0000	0,807825	216,283	0,211185
266,0000	0,736302	217,176	0,222778
265,0000	0,672618	218,037	0,233939
264,0000	0,623407	218,866	0,244697
263,0000	0,568284	219,68	0,255255
262,0000	0,562144	220,485	0,265687
261,0000	0,508529	221,267	0,275833
260,0000	0,49948	222,034	0,285778
259,0000	0,499699	222,758	0,29517
258,0000	0,522546	223,419	0,303741
257,0000	0,519622	224,017	0,311503
256,0000	0,51374	224,552	0,318439
255,0000	0,542936	225,04	0,324763
254,0000	0,573409	225,454	0,330136
253,0000	0,602255	225,786	0,334449
252,0000	0,597973	226,04	0,337741
251,0000	0,579955	226,227	0,340165
250,0000	0,552716	226,319	0,341364
249,0000	0,561353	226,321	0,341377
248,0000	0,573691	226,256	0,340538
247,0000	0,601924	226,148	0,33914
246,0000	0,627751	226,005	0,337284
245,0000	0,625862	225,825	0,334945
244,0000	0,602575	225,595	0,331967
243,0000	0,568746	225,351	0,328803
242,0000	0,555269	225,143	0,326104
241,0000	0,52707	224,969	0,323852
240,0000	0,542093	224,846	0,322247
239,0000	0,522954	224,752	0,321039
238,0000	0,504291	224,704	0,320408
237,0000	0,447654	224,705	0,32042
236,0000	0,363408	224,759	0,321129
235,0000	0,313677	224,883	0,322735
234,0000	0,289971	225,066	0,325106
233,0000	0,323606	225,321	0,328407
232,0000	0,324477	225,613	0,332207
231,0000	0,287435	225,929	0,3363
230,0000	0,202288	226,332	0,341521
229,0000	0,0895217	226,851	0,348253
228,0000	0,0206719	227,512	0,356827
227,0000	-0,0198198	228,276	0,366743
226,0000	-0,0922135	229,093	0,377341
225,0000	-0,123793	230,012	0,389253
224,0000	-0,186097	231,033	0,402504
223,0000	-0,206834	232,182	0,417407
222,0000	-0,251125	233,441	0,433731
221,0000	-0,319779	234,809	0,451479
220,0000	-0,445796	236,284	0,470604
219,0000	-0,521565	237,901	0,491581
218,0000	-0,629684	239,648	0,514232
217,0000	-0,692295	241,558	0,53901
216,0000	-0,782345	243,604	0,565545
215,0000	-0,855898	245,805	0,594089
214,0000	-0,937755	248,164	0,624693
213,0000	-1,02955	250,724	0,657889
212,0000	-1,14588	253,513	0,694064
211,0000	-1,24099	256,558	0,733563
210,0000	-1,2727	259,888	0,776749
209,0000	-1,26352	263,536	0,824061
208,0000	-1,24616	267,568	0,876359
207,0000	-1,28574	272,05	0,934487
206,0000	-1,32176	277,083	0,999766
205,0000	-1,37121	282,809	1,06517
204,0000	-1,43049	289,428	1,13779
203,0000	-1,51428	297,226	1,22203
202,0000	-1,46935	306,554	1,32091
201,0000	-1,42516	317,759	1,43696
200,0000	-1,41336	331,108	1,57135
199,0000	-1,65123	346,916	1,72505
198,0000	-1,69246	365,638	1,89945
197,0000	-1,85256	387,753	2,09478
196,0000	-1,74239	413,94	2,31114
195,0000	-1,80136	444,524	2,54091
194,0000	-1,69275	482,1	2,79532
193,0000	-1,91928	525,492	3,07555
192,0000	-2,49802	578,568	3,39858
191,0000	-3,35712	640,836	3,72727
190,0000	-2,92399	713,979	4,08132

##### Extended Information
[Comments]
Sample name	PNA8xx_T35a_1mm_130627
Comment	C1: buff; C2: PNA869; C3: PNA871
User	YN
Division	IREBS
Company	IREBS

[Detailed Information]
Creation date	27/06/2013 13:01

Data array type	Linear data array * 3
Horizontal axis	Wavelength [nm]
Vertical axis(1)	CD [mdeg]
Vertical axis(2)	HT [V]
Vertical axis(3)	Abs
Start	400 nm
End	190 nm
Data interval	1 nm
Data points	211     

[Measurement Information]
Instrument Name	CD
Model Name	J-815
Serial No.	B039561168

Accessory	MPTC-490S/15
Accessory S/N	B002661326
  Cell	2
  Temperature	34.99 C
  Control Sonsor	Holder
  Monitor Sensor	Holder
  Start Mode	Start immediately
  Cell Length	10 mm

Measurement Date	27/06/2013 13:00

Photometric Mode	CD, HT, Abs
Measure Range	400 - 190 nm
Data pitch	1 nm
Sensitivity	High
D.I.T.	1 sec
Bandwidth	2.00 nm
Start Mode	Immediately
Scanning Speed	200 nm/min
Baseline Correction	None
Shutter Control	Auto
PMT Voltage	Auto
Accumulations	6
Solvent	P20/0/6.8
Concentration	33 umol/L

