TITLE;PNA_120920_ThermCool
DATA TYPE;
ORIGIN;JASCO
OWNER;
DATE;12/09/21
TIME;00:06:03
SPECTROMETER/DATA SYSTEM;
LOCALE;1036
XUNITS;Temperature[C]
YUNITS;CD [mdeg]
Y2UNITS;HT [V]
Y3UNITS;ABSORBANCE
FIRSTX;   95,0000
LASTX;   35,0000
NPOINTS;     121
XYDATA
95,0000;-0,999723;620,952;3,63102
94,4800;-1,13883;619,435;3,62368
93,9900;-0,74444;620,086;3,62683
93,5100;-2,89895;618,522;3,61925
93,0000;-1,08283;619,305;3,62305
92,5200;0,711264;620,39;3,6283
92,0100;-0,662526;619,264;3,62285
91,4900;-2,47671;617,547;3,61453
91,0100;-1,12633;616,62;3,61005
90,4900;-1,68897;619,719;3,62505
89,9900;-1,75781;618,912;3,62114
89,5200;-0,722153;618,053;3,61699
88,9900;-2,05113;616,075;3,60741
88,5100;1,77141;618,827;3,62073
88,0200;1,12461;616,512;3,60953
87,4900;0,39652;616,259;3,6083
86,9900;-1,50314;615,926;3,60669
86,5100;-1,49989;615,308;3,6037
85,9900;-0,186469;617,543;3,61452
85,5000;-0,591937;614,545;3,60001
85,0000;-3,9953;613,305;3,594
84,4900;-1,23098;611,908;3,58724
83,9900;-1,91056;610,948;3,5826
83,5000;0,370051;609,747;3,57678
83,0000;-0,00149918;608,489;3,57069
82,4900;-0,833775;607,275;3,56424
82,0100;-4,86107;605,734;3,55552
81,5100;-0,846633;605,177;3,55235
80,9900;0,536498;603,74;3,54419
80,4900;-1,31451;603,182;3,54102
79,9900;-0,490704;602,442;3,5368
79,4900;1,08414;601,867;3,53352
78,9900;2,16417;600,606;3,52633
78,4900;-0,0869621;599,12;3,51783
78,0000;-3,18243;597,914;3,51093
77,4900;0,0594032;597,143;3,5065
77,0000;-0,595597;595,847;3,49906
76,5000;-3,9867;594,901;3,49361
76,0100;-1,10263;594,374;3,49058
75,5000;-3,99578;595,013;3,49426
75,0000;-2,38773;594,922;3,49374
74,5100;0,368567;593,377;3,48484
74,0000;0,191188;591,84;3,47596
73,4900;-1,21534;590,658;3,46913
73,0100;-1,80696;589,695;3,46355
72,5000;-0,987529;588,341;3,45569
71,9900;-3,14248;587,082;3,44838
71,5100;-0,19712;586,28;3,44371
71,0000;-0,0673714;585,332;3,43819
70,5100;-0,870322;584,367;3,43256
70,0000;-0,148151;584,081;3,43089
69,5000;-2,07247;583,898;3,42982
68,9800;-2,06264;583,722;3,42879
68,4900;-0,102586;582,524;3,42179
68,0000;2,92712;581,791;3,4175
67,5100;-3,1821;580,232;3,40835
67,0100;-1,34494;578,986;3,40104
66,5000;-1,26963;577,82;3,39418
65,9800;0,234277;576,909;3,38881
65,5000;-1,06985;575,876;3,38272
65,0000;0,819601;575,099;3,37813
64,4900;-2,95238;573,483;3,36857
63,9900;-1,62372;572,581;3,36323
63,4900;-0,0291664;571,511;3,35688
63,0000;-0,409673;570,258;3,34944
62,4900;-0,0912933;569,239;3,34337
62,0000;-2,49643;568,435;3,33859
61,4900;-2,8334;568,315;3,33787
60,9900;-1,6944;567,953;3,33571
60,5000;-2,17605;567,043;3,33028
60,0000;-1,87278;565,895;3,32343
59,4900;-0,0410202;565,033;3,31827
58,9900;-2,36205;563,936;3,31169
58,5100;-1,10412;563,057;3,30642
57,9900;-0,663009;562,009;3,30013
57,5200;-2,79028;561,067;3,29446
57,0200;-1,62309;560,192;3,2892
56,4900;-1,71658;559,29;3,28376
56,0000;-0,491118;558,432;3,27858
55,5100;0,61299;557,641;3,2738
55,0000;-0,922863;556,831;3,26891
54,4900;-0,825691;555,807;3,26271
54,0100;-1,43563;554,934;3,25742
53,4900;-1,36301;554,047;3,25204
53,0100;1,02367;553,198;3,24688
52,4900;0,0211563;552,385;3,24194
52,0000;1,29302;551,541;3,2368
51,5000;-1,45589;550,628;3,23124
51,0000;-0,386289;549,838;3,22642
50,5000;-0,150343;549,001;3,22131
50,0000;-1,58237;548,075;3,21565
49,5000;-1,40575;547,163;3,21006
48,9900;-3,00483;546,339;3,20502
48,5000;-3,95456;545,516;3,19997
48,0000;-1,02939;544,772;3,1954
47,5000;0,523393;544,079;3,19114
47,0000;-0,922484;543,629;3,18837
46,4900;-0,00158157;543,432;3,18716
45,9900;-0,498212;543,18;3,18561
45,5000;0,13382;542,696;3,18263
44,9900;-1,27024;542,061;3,17872
44,5000;-0,255434;541,33;3,17421
44,0100;-0,9093;540,67;3,17014
43,4900;-0,0364037;540,019;3,16612
43,0000;-0,993191;539,382;3,16218
42,5100;-1,68229;538,678;3,15783
42,0000;-0,633744;538,016;3,15373
41,4900;-1,19156;537,286;3,14921
41,0100;-1,15748;536,677;3,14543
40,5000;-0,450628;536,056;3,14157
40,0000;-1,87848;535,207;3,1363
39,5100;-0,529498;534,69;3,13308
39,0000;-0,270044;534,022;3,12893
38,5200;-1,0691;533,408;3,1251
37,9900;0,178256;532,748;3,12099
37,5000;-1,22167;532,224;3,11772
37,0200;-0,0414154;531,587;3,11375
36,5000;0,0949738;530,998;3,11007
35,9900;-1,29388;530,408;3,10638
35,5100;0,229935;529,847;3,10287
35,0000;-1,49957;529,278;3,09931

##### Extended Information
[Comments]
Sample name;PNA_120920_ThermCool
Comment;C1: buffer; C2: D2-T; C3: T; C4: D1; C5: D2; C6: tern
User
Division
Company;IREBS

[Detailed Information]
Creation date;21/09/2012 00:06

Data array type;Non-linear data array * 3
Horizontal axis;Temperature [C]
Vertical axis(1);CD [mdeg]
Vertical axis(2);HT [V]
Vertical axis(3);Abs
Start;95 C
End;35 C
Data points;121     

[Measurement Information]
Instrument Name;CD
Model Name;J-815
Serial No.;B039561168

Accessory;MPTC-490S/15
Accessory S/N;B002661326
  Cell;1
  Control Sonsor;Holder
  Monitor Sensor;Holder
  Start Mode;Keep target temperature +/-0.10 deg C while 5 seconds
  Cell Length;10 mm

Photometric Mode;CD, HT, Abs
Sensitivity;Standard
D.I.T.;4 sec
Bandwidth;2.00 nm
Monitor Wavelength;200 nm
Baseline Correction;None
Shutter Control;Auto
PMT Voltage;Auto
Solvent;P20/0/6.8
Concentration;2e-005 mol/L

