TITLE;D2T_T35_120920a_ApDenat
DATA TYPE;
ORIGIN;JASCO
OWNER;
DATE;12/09/20
TIME;09:58:47
SPECTROMETER/DATA SYSTEM;
LOCALE;1036
RESOLUTION;
DELTAX;-0,5
XUNITS;NANOMETERS
YUNITS;CD [mdeg]
Y2UNITS;HT [V]
Y3UNITS;ABSORBANCE
FIRSTX;  260,0000
LASTX;  195,0000
NPOINTS;     131
FIRSTY;     0,88975
MAXY;     2,12310
MINY;    -1,34961
XYDATA
260,0000;0,889754;249,679;0,644333
259,5000;0,814408;249,879;0,64693
259,0000;0,911604;250,2;0,65109
258,5000;0,847945;250,471;0,654614
258,0000;0,917095;250,662;0,657089
257,5000;0,813129;250,794;0,658803
257,0000;0,696607;250,958;0,660929
256,5000;0,774842;251,181;0,663824
256,0000;0,7798;251,417;0,666873
255,5000;0,729279;251,659;0,670023
255,0000;0,756382;251,83;0,67223
254,5000;0,685039;251,93;0,673533
254,0000;0,690554;252,085;0,675548
253,5000;0,673732;252,216;0,67724
253,0000;0,662606;252,303;0,678373
252,5000;0,610551;252,414;0,679811
252,0000;0,577922;252,596;0,682169
251,5000;0,607044;252,736;0,68398
251,0000;0,648521;252,797;0,684772
250,5000;0,657016;252,857;0,68555
250,0000;0,609843;252,971;0,68704
249,5000;0,638443;253,096;0,688658
249,0000;0,522382;253,137;0,689184
248,5000;0,414511;253,107;0,688802
248,0000;0,545826;253,108;0,688809
247,5000;0,486277;253,108;0,688814
247,0000;0,390816;253,168;0,689593
246,5000;0,561891;253,336;0,691769
246,0000;0,567344;253,428;0,692963
245,5000;0,551302;253,474;0,693552
245,0000;0,713763;253,513;0,694067
244,5000;0,671142;253,515;0,69409
244,0000;0,563833;253,548;0,694515
243,5000;0,552076;253,591;0,695071
243,0000;0,533438;253,61;0,695321
242,5000;0,466752;253,622;0,695475
242,0000;0,383971;253,686;0,696308
241,5000;0,517823;253,8;0,697787
241,0000;0,482333;253,858;0,698537
240,5000;0,288849;253,899;0,69907
240,0000;0,269067;254,012;0,700536
239,5000;0,217926;254,116;0,701882
239,0000;0,354693;254,279;0,704003
238,5000;0,47637;254,472;0,706505
238,0000;0,414504;254,624;0,708476
237,5000;0,258943;254,758;0,710212
237,0000;0,199878;254,952;0,712725
236,5000;0,273069;255,194;0,715863
236,0000;0,386592;255,449;0,719178
235,5000;0,298885;255,678;0,722141
235,0000;0,400124;255,981;0,726073
234,5000;0,373846;256,272;0,729848
234,0000;0,285481;256,587;0,73393
233,5000;0,350232;256,989;0,739152
233,0000;0,259322;257,395;0,744413
232,5000;0,222313;257,818;0,749898
232,0000;0,298382;258,284;0,75594
231,5000;0,263127;258,802;0,762657
231,0000;0,17403;259,405;0,770483
230,5000;0,280831;260,026;0,77854
230,0000;0,29693;260,571;0,785609
229,5000;0,27689;261,314;0,795247
229,0000;0,158875;262,371;0,808954
228,5000;0,13951;263,581;0,824648
228,0000;0,103753;264,845;0,841038
227,5000;0,179394;266,24;0,859133
227,0000;0,276444;267,795;0,879307
226,5000;0,170283;269,471;0,901044
226,0000;0,151465;271,369;0,925661
225,5000;0,326514;273,546;0,953898
225,0000;0,356041;275,989;0,985578
224,5000;0,0865091;278,626;1,01873
224,0000;-0,0102298;281,564;1,05139
223,5000;0,061755;284,906;1,08829
223,0000;0,183352;288,668;1,12951
222,5000;0,109096;292,819;1,1746
222,0000;0,0838635;297,484;1,22479
221,5000;0,112491;302,615;1,27941
221,0000;0,316696;308,332;1,33952
220,5000;0,32896;314,557;1,4041
220,0000;0,275367;321,364;1,47367
219,5000;0,162674;328,836;1,54878
219,0000;0,0209975;337,041;1,62973
218,5000;0,0934365;345,986;1,71617
218,0000;-0,0776462;355,549;1,80649
217,5000;-0,44749;365,878;1,90163
217,0000;-0,413757;377,018;2,0014
216,5000;0,160242;388,794;2,10369
216,0000;-0,13248;400,99;2,20617
215,5000;-0,632702;413,645;2,3088
215,0000;-0,109791;427,086;2,41365
214,5000;0,642305;440,809;2,51517
214,0000;0,0840368;454,63;2,61041
213,5000;-0,769061;468,646;2,70547
213,0000;0,0586494;483,156;2,80231
212,5000;-1,34961;497,054;2,89353
212,0000;-1,32606;511,236;2,98508
211,5000;-0,877961;525,013;3,07253
211,0000;-0,711697;537,847;3,15268
210,5000;-0,280555;549,702;3,22559
210,0000;0,674876;560,498;3,29104
209,5000;0,117158;569,529;3,3451
209,0000;-0,372192;576,959;3,3891
208,5000;-0,57298;582,84;3,42363
208,0000;-0,313207;587,209;3,44911
207,5000;-0,83046;589,531;3,4626
207,0000;-0,892089;590,344;3,46731
206,5000;-0,535432;589,834;3,46435
206,0000;-0,455992;587,818;3,45266
205,5000;-0,447047;584,721;3,43462
205,0000;-0,334531;580,775;3,41154
204,5000;0,760566;576,519;3,38651
204,0000;1,73232;571,858;3,35894
203,5000;0,244707;566,33;3,32602
203,0000;-0,97311;561,031;3,29425
202,5000;-1,32096;556,389;3,26623
202,0000;-0,835232;552,807;3,24451
201,5000;0,397038;550,602;3,23108
201,0000;-0,324421;549,29;3,22307
200,5000;-0,451102;550,053;3,22773
200,0000;-0,0342869;553,338;3,24773
199,5000;0,350451;559,251;3,28352
199,0000;-1,16714;567,852;3,33511
198,5000;-1,20407;580,806;3,41173
198,0000;-0,461716;598,43;3,51388
197,5000;-1,07939;620,883;3,63068
197,0000;0,496039;649,786;3,77059
196,5000;2,1231;685,264;3,94232
196,0000;0,376385;727,596;4,14723
195,5000;1,50731;779,964;4,40071
195,0000;0,00525568;841,132;4,6968

##### Extended Information
[Comments]
Sample name;D2T_T35_120920a_ApDenat
Comment;C1: buffer; C2: D2-T; C3: T; C4: D1; C5: D2; C6: tern
User
Division
Company;IREBS

[Detailed Information]
Creation date;20/09/2012 09:58

Data array type;Linear data array * 3
Horizontal axis;Wavelength [nm]
Vertical axis(1);CD [mdeg]
Vertical axis(2);HT [V]
Vertical axis(3);Abs
Start;260 nm
End;195 nm
Data interval;0,5 nm
Data points;131     

[Measurement Information]
Instrument Name;CD
Model Name;J-815
Serial No.;B039561168

Accessory;MPTC-490S/15
Accessory S/N;B002661326
  Cell;2
  Temperature;35.01 C
  Control Sonsor;Holder
  Monitor Sensor;Holder
  Start Mode;Keep target temperature +/-0.10 deg C while 5 seconds
  Cell Length;10 mm

Measurement Date;20/09/2012 09:58

Photometric Mode;CD, HT, Abs
Measure Range;260 - 195 nm
Data pitch;0.5 nm
Sensitivity;High
D.I.T.;0.5 sec
Bandwidth;1.00 nm
Start Mode;Immediately
Scanning Speed;100 nm/min
Baseline Correction;None
Shutter Control;Auto
PMT Voltage;Auto
Accumulations;5
Solvent;P20/0/6.8
Concentration;4 umol/L

